GPIB0::10::INSTR
List Sweep
Sweep_type: LIST   
Abort_on_compliance: TRUE 

Autorange: yes   
Man/SelectedRange: 100mV   
EnableDigitalFilter: no  
FilterType: Moving   
FilterCount 10.00000   
FilterWindow(Percent): 1.00000E-2   
EnableAnalogFilter: no    
NPLCs: 2.000000

Internal_Temperature_K2128A_[°C]: 26.46  
TCAL_K2128A_[°C]: 30.38











Current Voltage Power Resistance SourceDelay VoltageLimit
A V W Ohm s V

0.000000E+0 1.434360E-6 0.000000E+0 0.000000E+0 5.000000E+0 1.000000E+0
0.000000E+0 1.415747E-6 0.000000E+0 0.000000E+0 1.000000E+0 1.000000E+0
1.000000E-7 2.171703E-6 2.171703E-13 2.171703E+1 1.000000E-2 1.000000E+0
2.000000E-7 2.902065E-6 5.804130E-13 1.451033E+1 1.000000E-2 1.000000E+0
3.000000E-7 3.642510E-6 1.092753E-12 1.214170E+1 1.000000E-2 1.000000E+0
4.000000E-7 4.393554E-6 1.757422E-12 1.098388E+1 1.000000E-2 1.000000E+0
5.000000E-7 5.131154E-6 2.565577E-12 1.026231E+1 1.000000E-2 1.000000E+0
6.000000E-7 5.871082E-6 3.522649E-12 9.785136E+0 1.000000E-2 1.000000E+0
7.000000E-7 6.613078E-6 4.629154E-12 9.447254E+0 1.000000E-2 1.000000E+0
8.000000E-7 7.339820E-6 5.871856E-12 9.174774E+0 1.000000E-2 1.000000E+0
9.000000E-7 8.082849E-6 7.274564E-12 8.980944E+0 1.000000E-2 1.000000E+0
1.000000E-6 8.830274E-6 8.830274E-12 8.830274E+0 1.000000E-2 1.000000E+0
1.100000E-6 9.577699E-6 1.053547E-11 8.706999E+0 1.000000E-2 1.000000E+0
1.200000E-6 1.030573E-5 1.236688E-11 8.588112E+0 1.000000E-2 1.000000E+0
1.300000E-6 1.105031E-5 1.436541E-11 8.500242E+0 1.000000E-2 1.000000E+0
1.400000E-6 1.179903E-5 1.651865E-11 8.427880E+0 1.000000E-2 1.000000E+0
1.500000E-6 1.252629E-5 1.878944E-11 8.350861E+0 1.000000E-2 1.000000E+0
1.600000E-6 1.328613E-5 2.125780E-11 8.303829E+0 1.000000E-2 1.000000E+0
1.700000E-6 1.401881E-5 2.383198E-11 8.246361E+0 1.000000E-2 1.000000E+0
1.800000E-6 1.474375E-5 2.653874E-11 8.190971E+0 1.000000E-2 1.000000E+0
1.900000E-6 1.550462E-5 2.945877E-11 8.160324E+0 1.000000E-2 1.000000E+0
2.000000E-6 1.623524E-5 3.247047E-11 8.117618E+0 1.000000E-2 1.000000E+0
2.100000E-6 1.698990E-5 3.567879E-11 8.090428E+0 1.000000E-2 1.000000E+0
2.200000E-6 1.772776E-5 3.900107E-11 8.058072E+0 1.000000E-2 1.000000E+0
2.300000E-6 1.845993E-5 4.245784E-11 8.026056E+0 1.000000E-2 1.000000E+0
2.400000E-6 1.919779E-5 4.607469E-11 7.999079E+0 1.000000E-2 1.000000E+0
2.500000E-6 1.994211E-5 4.985528E-11 7.976845E+0 1.000000E-2 1.000000E+0
2.600000E-6 2.066911E-5 5.373969E-11 7.949658E+0 1.000000E-2 1.000000E+0
2.700000E-6 2.143076E-5 5.786304E-11 7.937317E+0 1.000000E-2 1.000000E+0
2.800000E-6 2.216060E-5 6.204968E-11 7.914500E+0 1.000000E-2 1.000000E+0
2.900000E-6 2.290441E-5 6.642278E-11 7.898071E+0 1.000000E-2 1.000000E+0
3.000000E-6 2.365106E-5 7.095317E-11 7.883685E+0 1.000000E-2 1.000000E+0
3.100000E-6 2.439848E-5 7.563529E-11 7.870477E+0 1.000000E-2 1.000000E+0
3.200000E-6 2.512936E-5 8.041395E-11 7.852925E+0 1.000000E-2 1.000000E+0
3.300000E-6 2.587549E-5 8.538912E-11 7.841058E+0 1.000000E-2 1.000000E+0
3.400000E-6 2.661102E-5 9.047748E-11 7.826772E+0 1.000000E-2 1.000000E+0
3.500000E-6 2.735043E-5 9.572652E-11 7.814410E+0 1.000000E-2 1.000000E+0
3.600000E-6 2.809863E-5 1.011551E-10 7.805176E+0 1.000000E-2 1.000000E+0
3.700000E-6 2.883081E-5 1.066740E-10 7.792110E+0 1.000000E-2 1.000000E+0
3.800000E-6 2.957228E-5 1.123747E-10 7.782180E+0 1.000000E-2 1.000000E+0
3.900000E-6 3.031634E-5 1.182337E-10 7.773421E+0 1.000000E-2 1.000000E+0
4.000000E-6 3.105705E-5 1.242282E-10 7.764262E+0 1.000000E-2 1.000000E+0
4.100000E-6 3.179103E-5 1.303432E-10 7.753909E+0 1.000000E-2 1.000000E+0
4.200000E-6 3.254000E-5 1.366680E-10 7.747620E+0 1.000000E-2 1.000000E+0
4.300000E-6 3.326623E-5 1.430448E-10 7.736332E+0 1.000000E-2 1.000000E+0
4.400000E-6 3.402193E-5 1.496965E-10 7.732256E+0 1.000000E-2 1.000000E+0
4.500000E-6 3.474944E-5 1.563725E-10 7.722099E+0 1.000000E-2 1.000000E+0
4.600000E-6 3.549558E-5 1.632796E-10 7.716429E+0 1.000000E-2 1.000000E+0
4.700000E-6 3.623757E-5 1.703166E-10 7.710121E+0 1.000000E-2 1.000000E+0
4.800000E-6 3.697879E-5 1.774982E-10 7.703915E+0 1.000000E-2 1.000000E+0
4.900000E-6 3.772622E-5 1.848585E-10 7.699228E+0 1.000000E-2 1.000000E+0
5.000000E-6 3.845451E-5 1.922725E-10 7.690902E+0 1.000000E-2 1.000000E+0
5.100000E-6 3.919573E-5 1.998982E-10 7.685437E+0 1.000000E-2 1.000000E+0
5.200000E-6 3.994522E-5 2.077152E-10 7.681773E+0 1.000000E-2 1.000000E+0
5.300000E-6 4.066938E-5 2.155477E-10 7.673468E+0 1.000000E-2 1.000000E+0
5.400000E-6 4.142275E-5 2.236828E-10 7.670879E+0 1.000000E-2 1.000000E+0
5.500000E-6 4.216345E-5 2.318990E-10 7.666082E+0 1.000000E-2 1.000000E+0
5.600000E-6 4.290364E-5 2.402604E-10 7.661364E+0 1.000000E-2 1.000000E+0
5.700000E-6 4.365985E-5 2.488612E-10 7.659623E+0 1.000000E-2 1.000000E+0
5.800000E-6 4.437134E-5 2.573538E-10 7.650231E+0 1.000000E-2 1.000000E+0
5.900000E-6 4.513195E-5 2.662785E-10 7.649483E+0 1.000000E-2 1.000000E+0
6.000000E-6 4.585947E-5 2.751568E-10 7.643245E+0 1.000000E-2 1.000000E+0
6.100000E-6 4.660250E-5 2.842752E-10 7.639754E+0 1.000000E-2 1.000000E+0
6.200000E-6 4.735303E-5 2.935888E-10 7.637585E+0 1.000000E-2 1.000000E+0
6.300000E-6 4.807666E-5 3.028830E-10 7.631217E+0 1.000000E-2 1.000000E+0
6.400000E-6 4.883055E-5 3.125155E-10 7.629774E+0 1.000000E-2 1.000000E+0
6.500000E-6 4.957410E-5 3.222316E-10 7.626785E+0 1.000000E-2 1.000000E+0
6.600000E-6 5.029722E-5 3.319617E-10 7.620791E+0 1.000000E-2 1.000000E+0
6.700000E-6 5.104491E-5 3.420009E-10 7.618643E+0 1.000000E-2 1.000000E+0
6.800000E-6 5.179698E-5 3.522195E-10 7.617203E+0 1.000000E-2 1.000000E+0
6.900000E-6 5.252398E-5 3.624155E-10 7.612172E+0 1.000000E-2 1.000000E+0
7.000000E-6 5.328434E-5 3.729903E-10 7.612048E+0 1.000000E-2 1.000000E+0
7.100000E-6 5.400332E-5 3.834236E-10 7.606102E+0 1.000000E-2 1.000000E+0
7.200000E-6 5.474687E-5 3.941774E-10 7.603732E+0 1.000000E-2 1.000000E+0
7.300000E-6 5.549791E-5 4.051348E-10 7.602454E+0 1.000000E-2 1.000000E+0
7.400000E-6 5.622750E-5 4.160835E-10 7.598311E+0 1.000000E-2 1.000000E+0
7.500000E-6 5.697906E-5 4.273429E-10 7.597208E+0 1.000000E-2 1.000000E+0
7.600000E-6 5.770580E-5 4.385641E-10 7.592869E+0 1.000000E-2 1.000000E+0
7.700000E-6 5.844883E-5 4.500560E-10 7.590757E+0 1.000000E-2 1.000000E+0
7.800000E-6 5.918126E-5 4.616138E-10 7.587341E+0 1.000000E-2 1.000000E+0
7.900000E-6 5.995480E-5 4.736429E-10 7.589215E+0 1.000000E-2 1.000000E+0
8.000000E-6 6.067947E-5 4.854358E-10 7.584934E+0 1.000000E-2 1.000000E+0
8.100000E-6 6.142638E-5 4.975537E-10 7.583503E+0 1.000000E-2 1.000000E+0
8.200000E-6 6.215829E-5 5.096980E-10 7.580279E+0 1.000000E-2 1.000000E+0
8.300000E-6 6.290442E-5 5.221067E-10 7.578846E+0 1.000000E-2 1.000000E+0
8.400000E-6 6.364021E-5 5.345778E-10 7.576216E+0 1.000000E-2 1.000000E+0
8.500000E-6 6.438247E-5 5.472510E-10 7.574408E+0 1.000000E-2 1.000000E+0
8.600000E-6 6.512601E-5 5.600837E-10 7.572792E+0 1.000000E-2 1.000000E+0
8.700000E-6 6.586646E-5 5.730382E-10 7.570857E+0 1.000000E-2 1.000000E+0
8.800000E-6 6.659553E-5 5.860406E-10 7.567673E+0 1.000000E-2 1.000000E+0
8.900000E-6 6.734269E-5 5.993500E-10 7.566595E+0 1.000000E-2 1.000000E+0
9.000000E-6 6.808184E-5 6.127366E-10 7.564649E+0 1.000000E-2 1.000000E+0
9.100000E-6 6.882875E-5 6.263416E-10 7.563599E+0 1.000000E-2 1.000000E+0
9.200000E-6 6.956480E-5 6.399962E-10 7.561391E+0 1.000000E-2 1.000000E+0
9.300000E-6 7.030576E-5 6.538436E-10 7.559759E+0 1.000000E-2 1.000000E+0
9.400000E-6 7.105448E-5 6.679121E-10 7.558987E+0 1.000000E-2 1.000000E+0
9.500000E-6 7.180087E-5 6.821083E-10 7.557986E+0 1.000000E-2 1.000000E+0
9.600000E-6 7.254028E-5 6.963867E-10 7.556279E+0 1.000000E-2 1.000000E+0
9.700000E-6 7.327245E-5 7.107428E-10 7.553861E+0 1.000000E-2 1.000000E+0
9.800000E-6 7.401962E-5 7.253923E-10 7.553022E+0 1.000000E-2 1.000000E+0
9.900000E-6 7.474946E-5 7.400197E-10 7.550451E+0 1.000000E-2 1.000000E+0
1.000000E-5 7.548525E-5 7.548525E-10 7.548525E+0 1.000000E-2 1.000000E+0
9.000000E-6 6.808934E-5 6.128041E-10 7.565482E+0 1.000000E-2 1.000000E+0
8.000000E-6 6.067482E-5 4.853985E-10 7.584352E+0 1.000000E-2 1.000000E+0
7.000000E-6 5.325512E-5 3.727858E-10 7.607874E+0 1.000000E-2 1.000000E+0
6.000000E-6 4.585662E-5 2.751397E-10 7.642771E+0 1.000000E-2 1.000000E+0
5.000000E-6 3.845296E-5 1.922648E-10 7.690591E+0 1.000000E-2 1.000000E+0
4.000000E-6 3.104877E-5 1.241951E-10 7.762193E+0 1.000000E-2 1.000000E+0
3.000000E-6 2.365467E-5 7.096401E-11 7.884891E+0 1.000000E-2 1.000000E+0
2.000000E-6 1.624040E-5 3.248081E-11 8.120202E+0 1.000000E-2 1.000000E+0
1.000000E-6 8.822776E-6 8.822776E-12 8.822776E+0 1.000000E-2 1.000000E+0
0.000000E+0 1.427639E-6 0.000000E+0 0.000000E+0 1.000000E-2 1.000000E+0
