GPIB0::10::INSTR
List Sweep
Sweep_type: LIST   
Abort_on_compliance: TRUE 

Autorange: yes   
Man/SelectedRange: 100mV   
EnableDigitalFilter: no  
FilterType: Moving   
FilterCount 10.00000   
FilterWindow(Percent): 1.00000E-2   
EnableAnalogFilter: no    
NPLCs: 2.000000

Internal_Temperature_K2128A_[°C]: 26.52  
TCAL_K2128A_[°C]: 30.38











Current Voltage Power Resistance SourceDelay VoltageLimit
A V W Ohm s V

0.000000E+0 1.746412E-6 0.000000E+0 0.000000E+0 5.000000E+0 1.000000E+0
0.000000E+0 1.740724E-6 0.000000E+0 0.000000E+0 1.000000E+0 1.000000E+0
1.000000E-7 2.474188E-6 2.474188E-13 2.474188E+1 1.000000E-2 1.000000E+0
2.000000E-7 3.215924E-6 6.431849E-13 1.607962E+1 1.000000E-2 1.000000E+0
3.000000E-7 3.938271E-6 1.181481E-12 1.312757E+1 1.000000E-2 1.000000E+0
4.000000E-7 4.677939E-6 1.871176E-12 1.169485E+1 1.000000E-2 1.000000E+0
5.000000E-7 5.412437E-6 2.706219E-12 1.082487E+1 1.000000E-2 1.000000E+0
6.000000E-7 6.149003E-6 3.689402E-12 1.024834E+1 1.000000E-2 1.000000E+0
7.000000E-7 6.886086E-6 4.820260E-12 9.837266E+0 1.000000E-2 1.000000E+0
8.000000E-7 7.612052E-6 6.089642E-12 9.515065E+0 1.000000E-2 1.000000E+0
9.000000E-7 8.338018E-6 7.504216E-12 9.264465E+0 1.000000E-2 1.000000E+0
1.000000E-6 9.078721E-6 9.078721E-12 9.078721E+0 1.000000E-2 1.000000E+0
1.100000E-6 9.797706E-6 1.077748E-11 8.907006E+0 1.000000E-2 1.000000E+0
1.200000E-6 1.052445E-5 1.262934E-11 8.770373E+0 1.000000E-2 1.000000E+0
1.300000E-6 1.126076E-5 1.463898E-11 8.662120E+0 1.000000E-2 1.000000E+0
1.400000E-6 1.200740E-5 1.681037E-11 8.576717E+0 1.000000E-2 1.000000E+0
1.500000E-6 1.271553E-5 1.907330E-11 8.477021E+0 1.000000E-2 1.000000E+0
1.600000E-6 1.345158E-5 2.152253E-11 8.407238E+0 1.000000E-2 1.000000E+0
1.700000E-6 1.417910E-5 2.410447E-11 8.340646E+0 1.000000E-2 1.000000E+0
1.800000E-6 1.492885E-5 2.687193E-11 8.293805E+0 1.000000E-2 1.000000E+0
1.900000E-6 1.564680E-5 2.972892E-11 8.235158E+0 1.000000E-2 1.000000E+0
2.000000E-6 1.638905E-5 3.277811E-11 8.194527E+0 1.000000E-2 1.000000E+0
2.100000E-6 1.712329E-5 3.595892E-11 8.153949E+0 1.000000E-2 1.000000E+0
2.200000E-6 1.785133E-5 3.927292E-11 8.114240E+0 1.000000E-2 1.000000E+0
2.300000E-6 1.858453E-5 4.274442E-11 8.080231E+0 1.000000E-2 1.000000E+0
2.400000E-6 1.931877E-5 4.636505E-11 8.049488E+0 1.000000E-2 1.000000E+0
2.500000E-6 2.004500E-5 5.011249E-11 8.017998E+0 1.000000E-2 1.000000E+0
2.600000E-6 2.076243E-5 5.398232E-11 7.985550E+0 1.000000E-2 1.000000E+0
2.700000E-6 2.151735E-5 5.809685E-11 7.969390E+0 1.000000E-2 1.000000E+0
2.800000E-6 2.224022E-5 6.227260E-11 7.942934E+0 1.000000E-2 1.000000E+0
2.900000E-6 2.296696E-5 6.660418E-11 7.919641E+0 1.000000E-2 1.000000E+0
3.000000E-6 2.370869E-5 7.112608E-11 7.902898E+0 1.000000E-2 1.000000E+0
3.100000E-6 2.445121E-5 7.579874E-11 7.887486E+0 1.000000E-2 1.000000E+0
3.200000E-6 2.517226E-5 8.055123E-11 7.866331E+0 1.000000E-2 1.000000E+0
3.300000E-6 2.590624E-5 8.549060E-11 7.850376E+0 1.000000E-2 1.000000E+0
3.400000E-6 2.662523E-5 9.052577E-11 7.830949E+0 1.000000E-2 1.000000E+0
3.500000E-6 2.736645E-5 9.578256E-11 7.818985E+0 1.000000E-2 1.000000E+0
3.600000E-6 2.808776E-5 1.011159E-10 7.802155E+0 1.000000E-2 1.000000E+0
3.700000E-6 2.880364E-5 1.065735E-10 7.784768E+0 1.000000E-2 1.000000E+0
3.800000E-6 2.954977E-5 1.122891E-10 7.776256E+0 1.000000E-2 1.000000E+0
3.900000E-6 3.028995E-5 1.181308E-10 7.766655E+0 1.000000E-2 1.000000E+0
4.000000E-6 3.103298E-5 1.241319E-10 7.758246E+0 1.000000E-2 1.000000E+0
4.100000E-6 3.173827E-5 1.301269E-10 7.741040E+0 1.000000E-2 1.000000E+0
4.200000E-6 3.248414E-5 1.364334E-10 7.734319E+0 1.000000E-2 1.000000E+0
4.300000E-6 3.320674E-5 1.427890E-10 7.722499E+0 1.000000E-2 1.000000E+0
4.400000E-6 3.396503E-5 1.494461E-10 7.719324E+0 1.000000E-2 1.000000E+0
4.500000E-6 3.467807E-5 1.560513E-10 7.706237E+0 1.000000E-2 1.000000E+0
4.600000E-6 3.540791E-5 1.628764E-10 7.697372E+0 1.000000E-2 1.000000E+0
4.700000E-6 3.614887E-5 1.698997E-10 7.691249E+0 1.000000E-2 1.000000E+0
4.800000E-6 3.686837E-5 1.769682E-10 7.680911E+0 1.000000E-2 1.000000E+0
4.900000E-6 3.759899E-5 1.842351E-10 7.673264E+0 1.000000E-2 1.000000E+0
5.000000E-6 3.834176E-5 1.917088E-10 7.668353E+0 1.000000E-2 1.000000E+0
5.100000E-6 3.906411E-5 1.992270E-10 7.659629E+0 1.000000E-2 1.000000E+0
5.200000E-6 3.980972E-5 2.070106E-10 7.655716E+0 1.000000E-2 1.000000E+0
5.300000E-6 4.054164E-5 2.148707E-10 7.649365E+0 1.000000E-2 1.000000E+0
5.400000E-6 4.127070E-5 2.228618E-10 7.642723E+0 1.000000E-2 1.000000E+0
5.500000E-6 4.199538E-5 2.309746E-10 7.635523E+0 1.000000E-2 1.000000E+0
5.600000E-6 4.271410E-5 2.391990E-10 7.627519E+0 1.000000E-2 1.000000E+0
5.700000E-6 4.345713E-5 2.477057E-10 7.624059E+0 1.000000E-2 1.000000E+0
5.800000E-6 4.417664E-5 2.562245E-10 7.616661E+0 1.000000E-2 1.000000E+0
5.900000E-6 4.491605E-5 2.650047E-10 7.612889E+0 1.000000E-2 1.000000E+0
6.000000E-6 4.565184E-5 2.739110E-10 7.608639E+0 1.000000E-2 1.000000E+0
6.100000E-6 4.637599E-5 2.828936E-10 7.602622E+0 1.000000E-2 1.000000E+0
6.200000E-6 4.710894E-5 2.920754E-10 7.598216E+0 1.000000E-2 1.000000E+0
6.300000E-6 4.785740E-5 3.015016E-10 7.596412E+0 1.000000E-2 1.000000E+0
6.400000E-6 4.856656E-5 3.108260E-10 7.588525E+0 1.000000E-2 1.000000E+0
6.500000E-6 4.931217E-5 3.205291E-10 7.586488E+0 1.000000E-2 1.000000E+0
6.600000E-6 5.004615E-5 3.303046E-10 7.582750E+0 1.000000E-2 1.000000E+0
6.700000E-6 5.077108E-5 3.401663E-10 7.577774E+0 1.000000E-2 1.000000E+0
6.800000E-6 5.149834E-5 3.501887E-10 7.573286E+0 1.000000E-2 1.000000E+0
6.900000E-6 5.222612E-5 3.603602E-10 7.569003E+0 1.000000E-2 1.000000E+0
7.000000E-6 5.296605E-5 3.707623E-10 7.566578E+0 1.000000E-2 1.000000E+0
7.100000E-6 5.369227E-5 3.812151E-10 7.562292E+0 1.000000E-2 1.000000E+0
7.200000E-6 5.442237E-5 3.918411E-10 7.558663E+0 1.000000E-2 1.000000E+0
7.300000E-6 5.516644E-5 4.027150E-10 7.557046E+0 1.000000E-2 1.000000E+0
7.400000E-6 5.588801E-5 4.135712E-10 7.552433E+0 1.000000E-2 1.000000E+0
7.500000E-6 5.662276E-5 4.246707E-10 7.549702E+0 1.000000E-2 1.000000E+0
7.600000E-6 5.736140E-5 4.359466E-10 7.547552E+0 1.000000E-2 1.000000E+0
7.700000E-6 5.808607E-5 4.472627E-10 7.543645E+0 1.000000E-2 1.000000E+0
7.800000E-6 5.880480E-5 4.586774E-10 7.539076E+0 1.000000E-2 1.000000E+0
7.900000E-6 5.955093E-5 4.704523E-10 7.538092E+0 1.000000E-2 1.000000E+0
8.000000E-6 6.028000E-5 4.822400E-10 7.534999E+0 1.000000E-2 1.000000E+0
8.100000E-6 6.100881E-5 4.941713E-10 7.531951E+0 1.000000E-2 1.000000E+0
8.200000E-6 6.172934E-5 5.061806E-10 7.527969E+0 1.000000E-2 1.000000E+0
8.300000E-6 6.248142E-5 5.185958E-10 7.527882E+0 1.000000E-2 1.000000E+0
8.400000E-6 6.319498E-5 5.308378E-10 7.523211E+0 1.000000E-2 1.000000E+0
8.500000E-6 6.392327E-5 5.433478E-10 7.520385E+0 1.000000E-2 1.000000E+0
8.600000E-6 6.464536E-5 5.559501E-10 7.516902E+0 1.000000E-2 1.000000E+0
8.700000E-6 6.539950E-5 5.689757E-10 7.517184E+0 1.000000E-2 1.000000E+0
8.800000E-6 6.611254E-5 5.817904E-10 7.512789E+0 1.000000E-2 1.000000E+0
8.900000E-6 6.685480E-5 5.950077E-10 7.511775E+0 1.000000E-2 1.000000E+0
9.000000E-6 6.760403E-5 6.084363E-10 7.511559E+0 1.000000E-2 1.000000E+0
9.100000E-6 6.833439E-5 6.218429E-10 7.509274E+0 1.000000E-2 1.000000E+0
9.200000E-6 6.904200E-5 6.351864E-10 7.504565E+0 1.000000E-2 1.000000E+0
9.300000E-6 6.977779E-5 6.489334E-10 7.502988E+0 1.000000E-2 1.000000E+0
9.400000E-6 7.051151E-5 6.628082E-10 7.501225E+0 1.000000E-2 1.000000E+0
9.500000E-6 7.124110E-5 6.767904E-10 7.499063E+0 1.000000E-2 1.000000E+0
9.600000E-6 7.198180E-5 6.910253E-10 7.498104E+0 1.000000E-2 1.000000E+0
9.700000E-6 7.270957E-5 7.052829E-10 7.495832E+0 1.000000E-2 1.000000E+0
9.800000E-6 7.345467E-5 7.198558E-10 7.495375E+0 1.000000E-2 1.000000E+0
9.900000E-6 7.417366E-5 7.343192E-10 7.492289E+0 1.000000E-2 1.000000E+0
1.000000E-5 7.492031E-5 7.492031E-10 7.492031E+0 1.000000E-2 1.000000E+0
9.000000E-6 6.758748E-5 6.082873E-10 7.509720E+0 1.000000E-2 1.000000E+0
8.000000E-6 6.027250E-5 4.821800E-10 7.534062E+0 1.000000E-2 1.000000E+0
7.000000E-6 5.295545E-5 3.706881E-10 7.565064E+0 1.000000E-2 1.000000E+0
6.000000E-6 4.564925E-5 2.738955E-10 7.608208E+0 1.000000E-2 1.000000E+0
5.000000E-6 3.832289E-5 1.916145E-10 7.664578E+0 1.000000E-2 1.000000E+0
4.000000E-6 3.099213E-5 1.239685E-10 7.748034E+0 1.000000E-2 1.000000E+0
3.000000E-6 2.369757E-5 7.109272E-11 7.899191E+0 1.000000E-2 1.000000E+0
2.000000E-6 1.637250E-5 3.274501E-11 8.186253E+0 1.000000E-2 1.000000E+0
1.000000E-6 9.046402E-6 9.046402E-12 9.046402E+0 1.000000E-2 1.000000E+0
0.000000E+0 1.726504E-6 0.000000E+0 0.000000E+0 1.000000E-2 1.000000E+0
